Wavelength	Counts
340.23	202.75
340.61	-177.25
340.99	-271.50
341.38	49.50
341.76	-110.50
342.14	-149.88
342.53	-285.50
342.91	209.50
343.30	-86.13
343.68	165.50
344.06	109.50
344.45	255.88
344.83	237.50
345.21	-176.13
345.60	-145.88
345.98	192.25
346.36	-119.75
346.75	-192.00
347.13	274.63
347.51	122.25
347.90	249.88
348.28	34.50
348.66	292.25
349.04	-34.13
349.43	-125.13
349.81	124.88
350.19	326.88
350.58	58.13
350.96	302.75
351.34	368.13
351.72	251.75
352.11	253.13
352.49	-73.63
352.87	7.13
353.26	205.75
353.64	174.25
354.02	41.00
354.40	17.00
354.79	207.75
355.17	95.88
355.55	375.38
355.93	417.00
356.31	259.63
356.70	35.25
357.08	236.50
357.46	87.75
357.84	371.50
358.23	-60.13
358.61	-71.00
358.99	154.00
359.37	-105.38
359.75	402.25
360.14	22.25
360.52	95.88
360.90	321.50
361.28	11.88
361.66	280.13
362.05	45.63
362.43	345.75
362.81	165.88
363.19	24.63
363.57	143.50
363.95	273.25
364.34	409.75
364.72	-85.63
365.10	316.38
365.48	249.63
365.86	416.63
366.24	0.88
366.62	463.38
367.01	98.00
367.39	69.63
367.77	160.50
368.15	292.63
368.53	423.63
368.91	69.00
369.29	425.75
369.67	461.13
370.05	474.38
370.44	194.25
370.82	335.38
371.20	-21.88
371.58	208.00
371.96	258.88
372.34	303.75
372.72	436.00
373.10	420.75
373.48	120.50
373.86	103.88
374.24	319.25
374.62	369.25
375.01	119.63
375.39	72.38
375.77	7.88
376.15	-2.00
376.53	32.50
376.91	170.25
377.29	-38.50
377.67	331.75
378.05	419.13
378.43	388.38
378.81	307.63
379.19	140.38
379.57	75.88
379.95	447.38
380.33	178.63
380.71	118.38
381.09	490.63
381.47	-15.25
381.85	1.00
382.23	223.38
382.61	434.00
382.99	491.13
383.37	142.13
383.75	495.75
384.13	45.38
384.51	474.25
384.89	14.25
385.27	255.00
385.65	257.38
386.03	373.50
386.41	197.25
386.79	278.88
387.17	112.25
387.54	14.38
387.92	218.38
388.30	350.38
388.68	139.50
389.06	416.25
389.44	127.75
389.82	60.50
390.20	134.63
390.58	578.13
390.96	946.88
391.34	1274.75
391.72	1946.25
392.09	2331.00
392.47	2500.50
392.85	3373.25
393.23	4131.75
393.61	4409.00
393.99	5494.13
394.37	6013.38
394.75	7044.75
395.12	7830.13
395.50	8288.88
395.88	9130.00
396.26	9845.25
396.64	10405.63
397.02	11422.38
397.40	12071.63
397.77	12552.50
398.15	13075.88
398.53	13674.75
398.91	14161.13
399.29	14367.13
399.67	14618.50
400.04	15011.25
400.42	15232.88
400.80	14644.13
401.18	14766.13
401.56	14783.00
401.93	14899.25
402.31	14117.88
402.69	14037.13
403.07	14003.63
403.45	13686.63
403.82	13230.13
404.20	13134.38
404.58	12732.50
404.96	12726.38
405.33	12532.00
405.71	11846.00
406.09	11953.00
406.47	11429.75
406.85	11540.75
407.22	10798.25
407.60	10507.00
407.98	10263.50
408.35	9972.25
408.73	9909.25
409.11	9306.38
409.49	9171.13
409.86	8833.25
410.24	8374.00
410.62	8361.88
411.00	7938.25
411.37	7435.13
411.75	6925.50
412.13	6835.13
412.50	6505.13
412.88	6246.00
413.26	5808.00
413.63	5364.25
414.01	5110.50
414.39	4524.00
414.76	4129.13
415.14	3703.25
415.52	3505.88
415.89	3503.38
416.27	3334.88
416.65	3028.00
417.02	2820.00
417.40	2359.13
417.78	2196.25
418.15	2172.88
418.53	1737.13
418.91	1632.13
419.28	1420.75
419.66	1039.50
420.04	816.00
420.41	1044.13
420.79	725.63
421.16	710.25
421.54	421.63
421.92	676.75
422.29	724.00
422.67	546.63
423.04	259.63
423.42	495.38
423.80	640.00
424.17	505.63
424.55	79.75
424.92	264.38
425.30	315.75
425.67	264.25
426.05	228.00
426.43	153.38
426.80	512.38
427.18	4.38
427.55	155.88
427.93	384.00
428.30	204.13
428.68	8.13
429.05	-3.25
429.43	-2.63
429.80	411.50
430.18	353.13
430.55	111.38
430.93	230.63
431.30	295.63
431.68	351.00
432.05	143.38
432.43	258.13
432.80	581.38
433.18	145.13
433.55	396.88
433.93	351.88
434.30	208.13
434.68	533.75
435.05	135.38
435.43	549.50
435.80	144.75
436.18	240.88
436.55	513.13
436.93	562.75
437.30	210.38
437.68	347.88
438.05	629.00
438.42	449.75
438.80	159.13
439.17	89.75
439.55	150.38
439.92	308.38
440.30	415.00
440.67	232.38
441.04	269.63
441.42	235.63
441.79	593.63
442.17	293.88
442.54	304.38
442.91	905.88
443.29	883.75
443.66	798.63
444.04	880.38
444.41	795.13
444.78	1120.38
445.16	919.38
445.53	922.88
445.90	1296.13
446.28	1365.75
446.65	1472.00
447.02	1737.13
447.40	2054.63
447.77	1615.63
448.14	1871.50
448.52	1975.13
448.89	2058.25
449.26	2676.00
449.64	2595.63
450.01	2745.75
450.38	2844.75
450.76	3149.00
451.13	3597.00
451.50	3469.00
451.88	3608.25
452.25	3647.13
452.62	4236.50
453.00	4296.63
453.37	4210.00
453.74	4413.13
454.11	5000.25
454.49	4909.00
454.86	5050.38
455.23	5455.13
455.60	5847.63
455.98	5945.38
456.35	5899.75
456.72	6448.63
457.09	6198.13
457.47	6501.25
457.84	6809.75
458.21	7199.13
458.58	7319.63
458.96	7507.63
459.33	7733.88
459.70	7695.50
460.07	7872.50
460.45	8345.25
460.82	8639.50
461.19	8456.75
461.56	8848.38
461.93	8949.63
462.31	9301.63
462.68	9498.75
463.05	9947.75
463.42	10080.38
463.79	10407.75
464.16	10264.00
464.54	10808.13
464.91	11156.38
465.28	11393.00
465.65	11493.25
466.02	11863.50
466.39	11865.50
466.77	12264.75
467.14	12058.13
467.51	12738.00
467.88	12876.50
468.25	13125.13
468.62	13087.50
468.99	13365.50
469.36	13710.50
469.74	13950.75
470.11	13955.38
470.48	14049.50
470.85	14291.38
471.22	14511.25
471.59	15039.88
471.96	14882.25
472.33	15110.75
472.70	15512.50
473.07	15886.88
473.44	15587.38
473.82	15731.13
474.19	15886.50
474.56	16449.38
474.93	16308.50
475.30	16687.88
475.67	16677.75
476.04	16888.38
476.41	17013.88
476.78	16902.88
477.15	16940.75
477.52	17428.50
477.89	17257.75
478.26	17404.38
478.63	17482.88
479.00	17789.38
479.37	17736.75
479.74	18267.88
480.11	18042.63
480.48	17934.13
480.85	18243.75
481.22	18484.50
481.59	18658.75
481.96	18601.75
482.33	18822.38
482.70	18943.25
483.07	18748.00
483.44	19184.50
483.81	18915.75
484.18	19220.63
484.55	19090.63
484.92	19714.25
485.29	19431.25
485.66	19962.00
486.03	19784.13
486.40	19945.75
486.77	20055.38
487.14	20258.13
487.50	20279.13
487.87	20778.88
488.24	21085.25
488.61	20818.75
488.98	21454.50
489.35	21539.75
489.72	21835.00
490.09	21605.50
490.46	22029.88
490.83	22119.38
491.19	22638.63
491.56	22776.50
491.93	22896.63
492.30	23398.50
492.67	23103.63
493.04	23854.25
493.41	24071.38
493.78	23910.00
494.14	24171.88
494.51	24421.75
494.88	25021.38
495.25	25106.50
495.62	25047.63
495.99	25808.13
496.35	25741.25
496.72	25802.63
497.09	26187.50
497.46	26757.50
497.83	26987.13
498.20	27088.75
498.56	27416.50
498.93	27313.13
499.30	27626.88
499.67	27598.00
500.04	28176.25
500.40	28523.75
500.77	28292.50
501.14	28788.88
501.51	28899.75
501.87	28899.75
502.24	29568.38
502.61	29505.63
502.98	29531.88
503.35	29878.00
503.71	29852.88
504.08	30244.63
504.45	30262.38
504.81	30454.38
505.18	30571.38
505.55	30561.00
505.92	30473.88
506.28	31132.38
506.65	31143.88
507.02	31216.13
507.39	31114.63
507.75	31252.88
508.12	31101.25
508.49	31462.38
508.85	31384.00
509.22	31496.13
509.59	31673.75
509.95	31821.88
510.32	31712.38
510.69	32037.25
511.05	31936.75
511.42	31736.13
511.79	31876.38
512.15	32176.00
512.52	32132.50
512.89	32340.88
513.25	32238.13
513.62	32008.63
513.99	32034.13
514.35	32085.38
514.72	32101.75
515.09	31731.63
515.45	32048.88
515.82	32017.75
516.18	32201.50
516.55	32025.13
516.92	32153.63
517.28	31614.25
517.65	32106.13
518.01	31809.63
518.38	31730.75
518.75	31519.13
519.11	31932.63
519.48	31668.63
519.84	31847.75
520.21	31377.13
520.57	31845.25
520.94	31417.38
521.31	31347.50
521.67	31837.88
522.04	31334.00
522.40	31802.38
522.77	31330.38
523.13	31657.63
523.50	31620.50
523.86	31750.63
524.23	31281.25
524.59	31320.13
524.96	31721.63
525.32	31406.75
525.69	31524.88
526.05	31712.38
526.42	31131.25
526.78	31448.88
527.15	31714.13
527.51	31603.00
527.88	31700.38
528.24	31874.13
528.61	31732.50
528.97	31642.13
529.34	31566.38
529.70	32103.63
530.07	31730.88
530.43	31794.63
530.80	32094.88
531.16	32176.88
531.53	31948.25
531.89	32469.88
532.25	32720.38
532.62	32412.75
532.98	32675.50
533.35	32804.00
533.71	33209.38
534.07	33131.13
534.44	33342.25
534.80	33484.88
535.17	33858.25
535.53	33970.00
535.89	33971.25
536.26	33743.50
536.62	34039.25
536.99	34091.38
537.35	34392.63
537.71	34510.25
538.08	35146.00
538.44	34939.38
538.80	35333.25
539.17	35398.13
539.53	35772.50
539.90	35554.50
540.26	35965.50
540.62	36213.75
540.99	36394.63
541.35	36391.88
541.71	36726.75
542.08	36638.13
542.44	36756.13
542.80	37174.38
543.16	37323.75
543.53	37512.13
543.89	37391.25
544.25	37779.00
544.62	37840.75
544.98	37961.00
545.34	38230.63
545.71	37853.63
546.07	38335.88
546.43	38142.38
546.79	38378.63
547.16	38148.63
547.52	38555.38
547.88	38431.75
548.24	38441.75
548.61	38707.63
548.97	38825.25
549.33	38825.75
549.69	38694.00
550.06	38635.63
550.42	38612.63
550.78	38465.75
551.14	38780.38
551.50	38666.00
551.87	38238.00
552.23	38409.38
552.59	38465.50
552.95	38196.88
553.31	38242.00
553.68	38400.38
554.04	38207.88
554.40	38026.75
554.76	38132.38
555.12	38142.50
555.49	37572.13
555.85	37702.88
556.21	37431.75
556.57	37542.50
556.93	37002.25
557.29	37167.75
557.65	37065.00
558.02	37005.88
558.38	36697.13
558.74	36707.63
559.10	36677.25
559.46	36564.25
559.82	36069.75
560.18	35969.88
560.54	36032.00
560.91	36038.50
561.27	35632.50
561.63	35501.75
561.99	35352.63
562.35	35386.75
562.71	35437.88
563.07	34997.00
563.43	34995.00
563.79	34678.38
564.15	34752.00
564.51	34984.75
564.87	34647.88
565.24	34878.63
565.60	34743.50
565.96	34589.88
566.32	34668.00
566.68	34298.63
567.04	34654.00
567.40	34683.75
567.76	34729.25
568.12	34223.75
568.48	34504.00
568.84	34138.38
569.20	34278.75
569.56	34205.88
569.92	34809.00
570.28	34534.00
570.64	34737.00
571.00	34711.25
571.36	34824.88
571.72	34963.75
572.08	35008.13
572.44	34887.88
572.80	34736.13
573.16	34965.13
573.52	34936.75
573.88	35256.25
574.24	35674.63
574.59	35681.25
574.95	36022.50
575.31	35956.50
575.67	35905.25
576.03	35917.88
576.39	36222.63
576.75	36486.00
577.11	36556.75
577.47	37006.00
577.83	37269.88
578.19	36987.63
578.55	37157.88
578.90	37366.38
579.26	37540.75
579.62	37993.88
579.98	37962.88
580.34	38089.75
580.70	38087.13
581.06	38251.63
581.42	38204.25
581.77	38267.88
582.13	38590.63
582.49	38781.63
582.85	38808.13
583.21	38960.50
583.57	38690.75
583.93	38916.00
584.28	39330.88
584.64	39483.13
585.00	39272.88
585.36	39228.50
585.72	39105.88
586.07	39368.00
586.43	39301.63
586.79	39243.25
587.15	39316.25
587.51	39279.50
587.86	39402.88
588.22	39644.13
588.58	39160.88
588.94	39121.25
589.30	39085.75
589.65	39233.00
590.01	39428.75
590.37	39467.50
590.73	39257.75
591.08	39384.00
591.44	39300.13
591.80	39037.38
592.16	39072.88
592.51	39144.13
592.87	38512.75
593.23	38632.88
593.58	38462.00
593.94	38587.63
594.30	38506.13
594.66	38189.88
595.01	38310.38
595.37	38105.63
595.73	37907.63
596.08	37836.13
596.44	37685.25
596.80	37596.50
597.15	37309.50
597.51	37531.13
597.87	37091.13
598.22	36923.38
598.58	36928.88
598.94	36489.75
599.29	36519.25
599.65	36490.63
600.01	36605.50
600.36	36161.75
600.72	36276.75
601.08	36031.00
601.43	35528.13
601.79	35579.88
602.14	35839.50
602.50	35414.00
602.86	35546.50
603.21	35369.00
603.57	35059.25
603.92	34917.75
604.28	35140.38
604.64	34975.25
604.99	34737.75
605.35	34423.63
605.70	34383.00
606.06	34545.00
606.41	34571.13
606.77	34436.38
607.13	33912.00
607.48	33995.88
607.84	33898.88
608.19	33613.88
608.55	34046.50
608.90	33973.63
609.26	33537.25
609.61	33434.13
609.97	33328.13
610.32	33163.88
610.68	33250.50
611.03	33492.25
611.39	33262.13
611.74	33446.50
612.10	32846.63
612.45	32813.25
612.81	33054.00
613.16	32891.13
613.52	32696.63
613.87	32705.75
614.23	32858.00
614.58	32681.38
614.94	32570.50
615.29	32439.00
615.64	32281.13
616.00	32479.63
616.35	32387.88
616.71	32123.38
617.06	32048.75
617.42	32374.13
617.77	32149.75
618.13	31813.00
618.48	31840.00
618.83	31800.63
619.19	31891.13
619.54	31617.88
619.90	31554.63
620.25	31802.38
620.60	31332.13
620.96	31606.13
621.31	31205.63
621.66	31508.63
622.02	31320.25
622.37	31234.50
622.73	31158.38
623.08	30715.75
623.43	30926.50
623.79	30364.63
624.14	30612.00
624.49	30141.88
624.85	30265.50
625.20	29908.38
625.55	29905.63
625.91	29563.25
626.26	29746.50
626.61	29498.88
626.97	29637.50
627.32	29008.00
627.67	28946.38
628.02	28584.38
628.38	28815.00
628.73	28570.38
629.08	28093.00
629.44	27964.13
629.79	28045.50
630.14	27721.25
630.49	27747.50
630.85	27480.25
631.20	27333.00
631.55	27117.50
631.90	26532.25
632.26	26649.88
632.61	26133.75
632.96	26169.63
633.31	26215.50
633.66	25607.00
634.02	25461.88
634.37	25119.13
634.72	25215.25
635.07	24723.38
635.43	24931.75
635.78	24769.63
636.13	24578.00
636.48	24188.13
636.83	23749.75
637.18	23638.38
637.54	23388.88
637.89	23325.25
638.24	23414.13
638.59	23067.13
638.94	22985.25
639.29	22395.13
639.65	22054.13
640.00	21863.25
640.35	21897.88
640.70	22003.00
641.05	21363.50
641.40	21566.50
641.75	21384.50
642.10	20829.50
642.46	20771.63
642.81	20882.00
643.16	20232.50
643.51	20153.38
643.86	20322.88
644.21	19915.13
644.56	20003.25
644.91	19518.75
645.26	19590.25
645.61	19077.63
645.96	19068.50
646.32	18914.63
646.67	19027.25
647.02	18609.75
647.37	18371.38
647.72	18500.13
648.07	17954.50
648.42	18316.50
648.77	18183.25
649.12	17993.88
649.47	17763.38
649.82	17651.13
650.17	17440.75
650.52	17042.75
650.87	17304.38
651.22	17088.38
651.57	17135.13
651.92	16982.50
652.27	16902.25
652.62	16413.63
652.97	16357.13
653.32	16608.25
653.67	16552.00
654.02	16326.25
654.37	16034.75
654.72	16361.63
655.07	15790.50
655.42	15626.13
655.76	15574.25
656.11	15617.63
656.46	15594.38
656.81	15365.00
657.16	15307.38
657.51	15273.75
657.86	15141.25
658.21	15342.63
658.56	15395.50
658.91	15511.00
659.26	15052.88
659.61	14957.63
659.95	15123.50
660.30	15009.38
660.65	14591.00
661.00	14915.25
661.35	14950.38
661.70	14496.88
662.05	14757.13
662.39	14596.38
662.74	14659.13
663.09	14431.50
663.44	14327.88
663.79	14523.38
664.14	14430.38
664.48	14384.88
664.83	14445.13
665.18	13995.00
665.53	13959.63
665.88	14045.75
666.23	13816.38
666.57	14233.25
666.92	14046.13
667.27	13749.25
667.62	14196.25
667.96	13713.13
668.31	13728.75
668.66	13880.38
669.01	13653.25
669.36	13973.00
669.70	13770.50
670.05	13440.75
670.40	13553.50
670.75	13550.50
671.09	13555.38
671.44	13320.50
671.79	13156.63
672.13	13230.00
672.48	13512.50
672.83	13514.50
673.18	13474.00
673.52	12965.50
673.87	13293.38
674.22	13291.75
674.56	13109.88
674.91	12855.25
675.26	13059.13
675.60	12780.38
675.95	12958.63
676.30	12607.00
676.65	12793.50
676.99	12976.63
677.34	12553.63
677.68	12411.63
678.03	12383.50
678.38	12290.13
678.72	12417.88
679.07	12573.63
679.42	12460.25
679.76	12134.13
680.11	12251.13
680.46	12031.50
680.80	12393.63
681.15	11967.00
681.49	11859.88
681.84	12123.13
682.19	11811.25
682.53	11977.00
682.88	11721.50
683.22	11711.00
683.57	11506.25
683.91	11746.88
684.26	11887.13
684.61	11575.00
684.95	11501.38
685.30	11296.50
685.64	11453.38
685.99	11531.25
686.33	11470.50
686.68	11339.25
687.02	11122.50
687.37	11034.13
687.71	11256.50
688.06	10729.75
688.40	10610.13
688.75	10672.38
689.09	10704.25
689.44	10851.75
689.78	10449.38
690.13	10633.50
690.47	10487.38
690.82	10057.50
691.16	10514.13
691.51	10310.63
691.85	10149.88
692.20	10131.25
692.54	10000.00
692.89	9720.50
693.23	10134.50
693.57	9573.25
693.92	9626.38
694.26	9649.75
694.61	9403.63
694.95	9666.38
695.30	9643.00
695.64	9289.63
695.98	9534.25
696.33	9197.00
696.67	9220.50
697.02	9221.00
697.36	8713.25
697.70	9007.63
698.05	8556.25
698.39	9060.38
698.73	8566.75
699.08	8562.13
699.42	8517.88
699.77	8662.13
700.11	8505.38
700.45	8048.63
700.80	8491.75
701.14	8492.75
701.48	8367.25
701.83	8009.63
702.17	8224.88
702.51	8131.63
702.86	7728.50
703.20	7627.63
703.54	7894.13
703.88	7687.38
704.23	7784.38
704.57	7428.63
704.91	7586.38
705.26	7295.00
705.60	7182.38
705.94	7416.00
706.28	7152.00
706.63	7407.88
706.97	6982.63
707.31	7370.88
707.65	7196.38
708.00	6798.38
708.34	6780.63
708.68	6826.38
709.02	6824.25
709.37	6970.88
709.71	6850.38
710.05	6806.25
710.39	6802.63
710.73	6734.63
711.08	6271.25
711.42	6125.25
711.76	5983.00
712.10	5942.50
712.44	6372.25
712.78	6392.38
713.13	5943.25
713.47	5988.00
713.81	6078.38
714.15	6051.75
714.49	6106.50
714.83	6011.13
715.18	6019.25
715.52	5816.38
715.86	5410.88
716.20	5528.38
716.54	5319.13
716.88	5480.75
717.22	5618.50
717.56	5493.25
717.91	5453.88
718.25	5100.25
718.59	5299.63
718.93	5276.75
719.27	5323.38
719.61	4872.13
719.95	4984.50
720.29	5351.88
720.63	4864.25
720.97	4946.00
721.31	4811.75
721.65	4735.13
721.99	4971.88
722.33	4772.25
722.68	4622.13
723.02	5016.13
723.36	4475.50
723.70	4606.88
724.04	4385.13
724.38	4612.38
724.72	4671.50
725.06	4709.88
725.40	4396.75
725.74	4457.63
726.08	4514.00
726.42	4552.50
726.76	4150.13
727.10	4085.88
727.44	4097.25
727.77	4219.50
728.11	4297.00
728.45	4026.25
728.79	3935.75
729.13	4439.63
729.47	4076.38
729.81	4240.88
730.15	3965.88
730.49	4316.50
730.83	4009.00
731.17	4101.75
731.51	3713.25
731.85	3917.88
732.19	3868.25
732.53	3813.00
732.86	3798.75
733.20	4101.63
733.54	3911.25
733.88	3945.88
734.22	3514.13
734.56	3693.88
734.90	3610.00
735.24	3511.88
735.57	3829.50
735.91	3457.38
736.25	3785.00
736.59	3399.88
736.93	3352.00
737.27	3363.63
737.60	3422.88
737.94	3498.75
738.28	3501.88
738.62	3244.63
738.96	3548.88
739.29	3450.88
739.63	3439.13
739.97	3523.75
740.31	3542.38
740.65	3250.38
740.98	3448.25
741.32	3617.13
741.66	3062.38
742.00	3534.00
742.33	3474.13
742.67	3469.50
743.01	3077.75
743.35	3449.63
743.68	3413.25
744.02	2879.75
744.36	3068.13
744.70	3236.38
745.03	2949.25
745.37	2942.00
745.71	3061.38
746.04	2915.63
746.38	2785.13
746.72	2957.50
747.06	2925.38
747.39	3251.88
747.73	3048.25
748.07	2804.63
748.40	2879.50
748.74	3206.63
749.08	2673.75
749.41	2658.13
749.75	3129.00
750.09	2635.75
750.42	2589.50
750.76	2549.00
751.09	3063.50
751.43	3023.88
751.77	2972.25
752.10	2678.00
752.44	2649.13
752.78	2997.00
753.11	2897.63
753.45	2713.88
753.78	3000.63
754.12	2852.13
754.46	2556.50
754.79	2373.25
755.13	2616.00
755.46	2548.88
755.80	2495.38
756.13	2582.00
756.47	2734.25
756.80	2740.00
757.14	2599.38
757.48	2718.63
757.81	2409.63
758.15	2637.25
758.48	2723.63
758.82	2770.75
759.15	2255.38
759.49	2274.63
759.82	2372.88
760.16	2585.38
760.49	2268.25
760.83	2664.00
761.16	2444.13
761.50	2521.75
761.83	2072.50
762.17	2488.38
762.50	2185.25
762.84	2307.13
763.17	2490.25
763.50	2251.63
763.84	2173.13
764.17	2188.00
764.51	2232.88
764.84	2236.25
765.18	2420.00
765.51	2183.88
765.84	1966.00
766.18	2411.25
766.51	2387.75
766.85	1832.88
767.18	2346.88
767.51	1896.50
767.85	1950.88
768.18	1909.50
768.52	2004.13
768.85	1987.00
769.18	1705.13
769.52	1783.50
769.85	2266.25
770.18	1952.63
770.52	1820.13
770.85	1655.63
771.18	2119.75
771.52	1753.00
771.85	2169.38
772.18	1859.25
772.52	2052.25
772.85	1851.00
773.18	1852.50
773.52	1866.75
773.85	1767.13
774.18	2074.38
774.52	2063.13
774.85	1996.63
775.18	1720.13
775.51	1627.38
775.85	1921.63
776.18	1883.75
776.51	1844.00
776.84	1392.38
777.18	1501.13
777.51	1513.75
777.84	1853.63
778.17	1652.25
778.51	1397.25
778.84	1811.50
779.17	1584.00
779.50	1473.25
779.83	1397.50
780.17	1801.50
780.50	1409.25
780.83	1588.75
781.16	1220.00
781.49	1192.13
781.83	1152.13
782.16	1475.63
782.49	1705.63
782.82	1612.38
783.15	1317.00
783.48	1318.25
783.82	1365.63
784.15	1414.88
784.48	1096.63
784.81	1587.75
785.14	1089.38
785.47	1616.13
785.80	1089.00
786.14	1156.50
786.47	1152.88
786.80	1154.38
787.13	1064.00
787.46	1524.75
787.79	1010.00
788.12	1528.50
788.45	991.13
788.78	1393.50
789.11	1452.00
789.44	976.38
789.77	919.75
790.10	1401.75
790.44	1076.50
790.77	1457.63
791.10	1363.75
791.43	1041.00
791.76	888.13
792.09	1345.50
792.42	954.00
792.75	1392.63
793.08	1141.25
793.41	1362.25
793.74	1243.75
794.07	835.75
794.40	841.00
794.73	1314.13
795.06	834.75
795.39	1006.75
795.72	1131.38
796.05	1387.75
796.38	1287.25
796.71	938.50
797.03	1082.88
797.36	980.63
797.69	1351.00
798.02	1164.00
798.35	1197.38
798.68	922.25
799.01	1331.63
799.34	1238.75
799.67	930.75
800.00	1098.13
800.33	823.13
809.42	826.25
809.75	1277.88
810.08	757.75
810.41	822.75
810.74	895.50
811.07	840.50
811.40	1092.00
811.72	1024.13
812.05	851.63
812.38	853.75
812.71	1060.25
813.04	944.63
813.37	908.88
813.70	947.88
814.02	574.13
814.35	705.38
814.68	862.63
815.01	885.00
815.34	781.63
815.66	945.63
815.99	920.25
816.32	531.25
816.65	572.13
816.98	947.63
817.30	582.50
817.63	724.13
817.96	601.75
818.29	517.38
818.61	908.50
818.94	1027.75
819.27	960.13
819.60	734.00
819.92	783.13
820.25	796.38
820.58	496.75
820.90	666.13
821.23	692.13
821.56	565.13
821.89	520.88
822.21	550.13
822.54	777.13
822.87	849.50
823.19	585.13
823.52	659.38
823.85	887.38
824.17	421.75
824.50	976.38
824.83	458.25
825.15	434.63
825.48	635.75
825.81	473.50
826.13	932.25
826.46	894.88
826.78	465.88
827.11	805.00
827.44	808.38
827.76	799.63
828.09	493.00
828.41	569.00
828.74	477.75
829.07	590.13
829.39	792.50
829.72	689.00
830.04	675.88
830.37	591.13
830.70	697.50
831.02	780.63
831.35	746.13
831.67	541.00
832.00	891.88
832.32	785.13
832.65	586.50
832.97	411.63
833.30	403.38
833.62	556.63
833.95	305.63
834.27	636.13
834.60	503.50
834.92	780.75
835.25	338.50
835.57	398.50
835.90	458.00
836.22	747.88
836.55	583.50
836.87	262.25
837.20	423.13
837.52	409.75
837.85	320.75
838.17	808.38
838.49	476.13
838.82	258.63
839.14	458.63
839.47	543.50
839.79	231.13
840.12	701.50
840.44	580.75
840.76	423.00
841.09	221.00
841.41	677.88
841.74	575.38
842.06	524.00
842.38	352.00
842.71	483.63
843.03	606.63
843.35	596.00
843.68	327.00
844.00	714.38
844.32	401.00
844.65	466.63
844.97	411.63
845.29	623.75
845.62	714.38
845.94	384.13
846.26	363.63
846.59	393.88
846.91	297.75
847.23	549.25
847.56	201.13
847.88	285.75
848.20	458.50
848.52	382.50
848.85	306.75
849.17	704.00
849.49	557.00
849.82	258.50
850.14	286.50
850.46	176.00
850.78	469.63
851.10	579.50
851.43	192.88
851.75	469.75
852.07	272.63
852.39	489.00
852.72	667.25
853.04	428.13
853.36	125.50
853.68	390.13
854.00	151.75
854.33	209.00
854.65	422.25
854.97	172.63
855.29	310.63
855.61	483.63
855.93	536.63
856.26	466.00
856.58	307.50
856.90	356.88
857.22	636.38
857.54	250.50
857.86	178.38
858.18	241.00
858.50	265.00
858.83	208.75
859.15	227.13
859.47	564.13
859.79	435.13
860.11	211.50
860.43	105.50
860.75	60.13
861.07	388.38
861.39	643.13
861.71	213.13
862.03	166.25
862.35	72.38
862.67	500.63
863.00	355.38
863.32	539.75
863.64	331.75
863.96	356.38
864.28	468.13
864.60	300.25
864.92	423.00
865.24	610.75
865.56	188.13
865.88	88.13
866.20	403.13
866.52	210.50
866.84	16.50
867.16	225.25
867.48	272.50
867.80	348.25
868.11	75.50
868.43	89.88
868.75	241.13
869.07	128.38
869.39	253.38
869.71	143.00
870.03	495.00
870.35	228.25
870.67	517.38
870.99	400.63
871.31	465.88
871.63	2.13
871.95	218.50
872.26	581.75
872.58	414.75
872.90	129.75
873.22	513.13
873.54	97.75
873.86	165.50
874.18	339.00
874.50	198.63
874.81	146.13
875.13	270.38
875.45	135.50
875.77	368.75
876.09	258.13
876.41	130.13
876.72	319.13
877.04	572.50
877.36	475.50
877.68	564.13
878.00	205.38
878.31	445.88
878.63	517.00
878.95	223.13
879.27	93.13
879.58	419.13
879.90	498.25
880.22	209.63
880.54	561.88
880.85	195.63
881.17	494.88
881.49	91.75
881.81	300.00
882.12	81.50
882.44	178.00
882.76	227.75
883.08	18.13
883.39	188.75
883.71	173.13
884.03	72.00
884.34	361.75
884.66	175.13
884.98	562.38
885.29	332.13
885.61	568.38
885.93	14.63
886.24	171.25
886.56	322.50
886.88	372.88
887.19	467.25
887.51	245.63
887.82	315.38
888.14	162.75
888.46	246.50
888.77	-48.50
889.09	-45.50
889.41	351.38
889.72	132.50
890.04	454.00
890.35	427.50
890.67	387.88
890.98	554.13
891.30	405.88
891.62	254.25
891.93	279.63
892.25	104.63
892.56	72.13
892.88	73.63
893.19	132.00
893.51	153.88
893.82	-41.00
894.14	-25.50
894.45	484.88
894.77	421.88
895.08	160.00
895.40	465.38
895.71	49.00
896.03	-13.75
896.34	243.50
896.66	55.38
896.97	256.38
897.29	54.13
897.60	406.88
897.92	448.50
898.23	158.25
898.55	75.63
898.86	469.63
899.18	416.50
899.49	486.25
899.80	-22.75
900.12	-2.63
900.43	376.25
900.75	-48.75
901.06	432.25
901.37	503.63
901.69	457.88
902.00	385.50
902.32	217.13
902.63	199.88
902.94	456.25
903.26	506.50
903.57	153.88
903.88	473.50
904.20	110.50
904.51	165.25
904.82	-75.88
905.14	85.75
905.45	253.75
905.76	25.50
906.08	498.63
906.39	520.13
906.70	314.13
907.02	409.13
907.33	159.00
907.64	139.00
907.96	306.38
908.27	-34.00
908.58	293.63
908.89	-49.38
909.21	461.63
909.52	121.88
909.83	-16.75
910.14	222.25
910.46	385.38
910.77	441.50
911.08	366.63
911.39	191.00
911.70	95.75
912.02	386.13
912.33	246.63
912.64	290.63
912.95	104.13
913.26	379.00
913.58	110.38
913.89	328.63
914.20	144.63
914.51	207.13
914.82	-51.88
915.14	122.50
915.45	165.25
915.76	82.63
916.07	-1.13
916.38	-36.75
916.69	399.88
917.00	-100.88
917.31	-77.00
917.63	56.75
917.94	39.75
918.25	-84.13
918.56	309.88
918.87	-67.00
919.18	-35.00
919.49	431.00
919.80	224.88
920.11	249.38
920.42	256.38
920.73	282.13
921.04	120.13
921.36	372.13
921.67	151.88
921.98	362.88
922.29	431.50
922.60	430.25
922.91	-95.38
923.22	21.75
923.53	-68.63
923.84	153.75
924.15	409.38
924.46	88.75
924.77	428.13
925.08	260.50
925.39	161.13
925.70	25.25
926.01	431.38
926.32	425.75
926.63	420.25
926.93	165.13
927.24	457.75
927.55	209.50
927.86	314.13
928.17	161.00
928.48	213.25
928.79	285.13
929.10	-43.50
929.41	141.38
929.72	170.50
930.03	85.38
930.34	386.13
930.64	91.00
930.95	-107.75
931.26	269.25
931.57	327.63
931.88	128.38
932.19	-0.63
932.50	398.25
932.80	318.38
933.11	35.25
933.42	-138.00
933.73	451.38
934.04	-100.00
934.35	402.75
934.65	-131.13
934.96	40.88
935.27	268.38
935.58	201.63
935.89	290.38
936.19	27.13
936.50	418.25
936.81	340.63
937.12	124.38
937.42	-105.25
937.73	134.25
938.04	89.38
938.35	-58.25
938.65	124.75
938.96	263.00
939.27	406.00
939.58	299.75
939.88	-35.63
940.19	424.38
940.50	227.75
940.80	311.50
941.11	427.38
941.42	409.63
941.73	237.38
942.03	-134.25
942.34	182.13
942.65	230.13
942.95	40.50
943.26	-88.00
943.57	43.75
943.87	423.75
944.18	88.13
944.48	60.50
944.79	157.13
945.10	301.13
945.40	355.25
945.71	-131.38
946.02	434.00
946.32	238.75
946.63	372.38
946.93	-22.00
947.24	329.75
947.54	254.13
947.85	426.75
948.16	358.38
948.46	333.38
948.77	-133.38
949.07	4.63
949.38	270.25
949.68	334.75
949.99	301.75
950.29	293.75
950.60	28.38
950.90	215.63
951.21	319.00
951.51	165.00
951.82	-40.88
952.12	146.00
952.43	213.38
952.73	324.63
953.04	57.88
953.34	-87.63
953.65	307.25
953.95	-36.75
954.26	410.50
954.56	288.13
954.87	-90.75
955.17	235.00
955.48	12.25
955.78	256.63
956.08	-31.38
956.39	-68.38
956.69	339.63
957.00	487.63
957.30	137.00
957.60	-46.75
957.91	476.25
958.21	196.00
958.52	88.75
958.82	5.25
959.12	324.25
959.43	168.38
959.73	402.75
960.03	356.88
960.34	169.88
960.64	-146.75
960.94	-121.38
961.25	78.63
961.55	397.63
961.85	243.63
962.16	275.25
962.46	-81.50
962.76	-47.25
963.06	53.13
963.37	416.63
963.67	290.38
963.97	364.13
964.28	328.75
964.58	295.38
964.88	254.50
965.18	388.63
965.49	216.88
965.79	-30.88
966.09	44.50
966.39	232.88
966.70	397.50
967.00	-118.63
967.30	47.75
967.60	89.38
967.90	315.38
968.21	75.13
968.51	133.50
968.81	142.63
969.11	259.38
969.41	204.00
969.71	123.13
970.02	199.38
970.32	102.00
970.62	-62.00
970.92	-117.88
971.22	267.38
971.52	-58.00
971.82	53.00
972.13	347.75
972.43	86.75
972.73	-64.25
973.03	-144.13
973.33	37.75
973.63	319.75
973.93	88.00
974.23	-94.25
974.53	331.38
974.83	213.00
975.14	-109.38
975.44	70.88
975.74	422.25
976.04	247.25
976.34	23.63
976.64	201.50
976.94	-55.75
977.24	-28.13
977.54	81.88
977.84	45.88
978.14	389.00
978.44	324.63
978.74	275.00
979.04	-71.38
979.34	252.63
979.64	-132.25
979.94	102.13
980.24	245.63
980.54	69.88
980.84	251.50
981.14	377.13
981.44	106.13
981.73	410.75
982.03	382.50
982.33	131.50
982.63	-31.25
982.93	432.75
983.23	-83.88
983.53	273.75
983.83	-55.88
984.13	2.88
984.43	403.50
984.73	267.63
985.02	-36.00
985.32	-73.38
985.62	256.50
985.92	-90.38
986.22	178.88
986.52	80.00
986.82	-64.50
987.11	331.25
987.41	331.38
987.71	346.38
988.01	380.75
997.08	-29.13
997.37	14.88
997.67	39.88
997.97	205.88
998.27	-86.13
998.56	333.75
998.86	439.50
999.16	315.50
999.46	-25.38
999.76	-102.75
1000.05	238.25
1000.35	430.25
1000.65	120.38
1000.95	415.63
1001.24	-22.75
1001.54	227.88
1001.84	413.13
1002.13	356.38
1002.43	313.63
1002.73	301.63
1003.03	150.75
1003.32	357.00
1003.62	74.25
1003.92	-114.75
1004.21	429.25
1004.51	-82.00
1004.81	76.38
1005.10	172.88
1005.40	306.88
1005.70	42.75
1005.99	-155.63
1006.29	281.63
1006.58	-105.75
1006.88	27.88
1007.18	-36.75
1007.47	-62.25
1007.77	71.50
1008.07	425.88
1008.36	229.00
1008.66	-137.00
1008.95	422.63
1009.25	-77.63
1009.54	-132.38
1009.84	394.38
1010.14	218.38
1010.43	337.00
1010.73	-113.38
1011.02	-14.63
1011.32	341.13
1011.61	-49.88
1011.91	-71.88
1012.20	-123.25
1012.50	120.13
1012.79	-28.63
1013.09	-120.63
1013.38	118.50
1013.68	430.75
1013.97	381.38
1014.27	394.38
1014.56	-40.00
1014.86	-98.38
1015.15	288.75
1015.45	-135.25
1015.74	241.88
1016.03	281.25
1016.33	95.50
1016.62	-52.63
1016.92	69.88
1017.21	-11.50
1017.51	-8.00
1017.80	382.63
1018.09	137.88
1018.39	208.63
1018.68	-80.63
1018.98	147.38
1019.27	354.75
1019.56	353.75
1019.86	212.13
1020.15	224.13
1020.44	184.75
1020.74	285.63
1021.03	352.38
1021.32	-116.38
1021.62	230.75
1021.91	-38.00
1022.20	360.38
1022.50	-105.00
1022.79	26.50
1023.08	261.63
1023.38	354.13
1023.67	392.88
1023.96	61.50
1024.25	150.75
1024.55	341.75
1024.84	26.38
1025.13	-52.13
1025.43	33.63
1025.72	78.00
1026.01	-93.13
1026.30	392.13
1026.59	-32.00
1026.89	-86.00
1027.18	368.75
1027.47	407.38
1027.76	-104.63
1028.06	361.13
1028.35	-60.25
1028.64	201.50
1028.93	268.88
1029.22	412.63
1029.51	-132.00
1029.81	194.00
1030.10	352.00
1030.39	-144.63
1030.68	276.13
1030.97	327.38
1031.26	-2.13
1031.56	83.88
1031.85	343.63
1032.14	407.38
1032.43	-1.63
1032.72	18.63
1033.01	385.88
1033.30	399.88
1033.59	187.50
1033.88	90.50
1034.17	31.75
1034.46	118.13
1034.76	103.00
1035.05	4.00
1035.34	-82.88
1035.63	291.75
1035.92	-85.63
1036.21	128.25
1036.50	16.88
1036.79	-32.63
1037.08	132.38
1037.37	-162.63
1037.66	158.13
1037.95	424.75
1038.24	316.13
1038.53	-168.38
1038.82	77.25
1039.11	19.63
1039.40	-108.88
1039.69	134.75
1039.98	143.00
1040.27	221.13
1040.56	-63.50
1040.85	77.13
1041.14	373.00
1041.42	5.13
1041.71	109.13
1042.00	-68.50
1042.29	313.63
1042.58	216.75
1042.87	-38.00
1043.16	314.75
1043.45	7.75
1043.74	197.13
1044.03	307.00
1044.31	359.38
1044.60	58.25
1044.89	-139.00
1045.18	247.75
1045.47	22.13
1045.76	-161.13
1046.05	349.50
1046.33	-170.50
1046.62	75.38
1046.91	14.00
1047.20	-28.88
1047.49	258.13
1047.77	-80.63
1048.06	-74.25
1048.35	-68.25
